# beta(deg),gamma(deg)
58.283,90.000
58.283,270.000
121.717,90.000
121.717,270.000
31.717,0.000
31.717,180.000
148.283,0.000
148.283,180.000
90.000,31.717
90.000,148.283
90.000,328.283
90.000,211.717
90.000,180.000
120.000,200.905
60.000,200.905
120.000,159.095
60.000,159.095
108.000,238.283
72.000,238.283
108.000,121.717
72.000,121.717
144.000,238.283
36.000,238.283
144.000,121.717
36.000,121.717
90.000,270.000
180.000,0.000
0.000,0.000
90.000,90.000
144.000,301.717
36.000,301.717
144.000,58.283
36.000,58.283
108.000,301.717
72.000,301.717
108.000,58.283
72.000,58.283
120.000,339.095
60.000,339.095
120.000,20.905
60.000,20.905
90.000,0.000
90.000,195.859
90.000,164.141
105.240,189.694
74.760,189.694
105.240,170.306
74.760,170.306
105.064,206.701
74.936,206.701
105.064,153.299
74.936,153.299
121.717,180.000
58.283,180.000
99.243,224.661
80.757,224.661
99.243,135.339
80.757,135.339
134.591,193.035
45.409,193.035
134.591,166.965
45.409,166.965
115.171,220.501
64.829,220.501
115.171,139.499
64.829,139.499
133.487,215.890
46.513,215.890
133.487,144.110
46.513,144.110
90.000,238.283
90.000,121.717
149.618,210.921
30.382,210.921
149.618,149.079
30.382,149.079
126.000,238.283
54.000,238.283
126.000,121.717
54.000,121.717
164.141,180.000
15.859,180.000
99.350,254.550
80.650,254.550
115.715,253.234
64.285,253.234
115.715,106.766
64.285,106.766
99.350,105.450
80.650,105.450
133.930,257.113
46.070,257.113
162.000,238.283
18.000,238.283
162.000,121.717
18.000,121.717
133.930,102.887
46.070,102.887
105.859,270.000
74.141,270.000
148.283,270.000
31.717,270.000
148.283,90.000
31.717,90.000
105.859,90.000
74.141,90.000
133.930,282.887
46.070,282.887
162.000,301.717
18.000,301.717
162.000,58.283
18.000,58.283
133.930,77.113
46.070,77.113
99.350,285.450
80.650,285.450
115.715,286.766
64.285,286.766
115.715,73.234
64.285,73.234
99.350,74.550
80.650,74.550
164.141,0.000
15.859,0.000
126.000,301.717
54.000,301.717
126.000,58.283
54.000,58.283
149.618,329.079
30.382,329.079
149.618,30.921
30.382,30.921
90.000,301.717
90.000,58.283
133.487,324.110
46.513,324.110
133.487,35.890
46.513,35.890
115.171,319.499
64.829,319.499
115.171,40.501
64.829,40.501
134.591,346.965
45.409,346.965
134.591,13.035
45.409,13.035
99.243,315.339
80.757,315.339
99.243,44.661
80.757,44.661
121.717,0.000
58.283,0.000
105.064,333.299
74.936,333.299
105.064,26.701
74.936,26.701
105.240,350.306
74.760,350.306
105.240,9.694
74.760,9.694
90.000,344.141
90.000,15.859
90.000,187.929
90.000,172.071
97.647,184.760
82.353,184.760
97.647,175.240
82.353,175.240
97.631,192.831
82.369,192.831
97.631,167.169
82.369,167.169
105.450,180.000
74.550,180.000
97.565,201.185
82.435,201.185
97.565,158.815
82.435,158.815
105.312,198.201
74.688,198.201
105.312,161.799
74.688,161.799
90.000,203.788
90.000,156.212
113.554,185.152
66.446,185.152
113.554,174.848
66.446,174.848
112.717,194.996
67.283,194.996
112.717,165.004
67.283,165.004
97.539,209.253
82.461,209.253
97.539,150.747
82.461,150.747
112.558,203.961
67.442,203.961
112.558,156.039
67.442,156.039
121.283,190.547
58.717,190.547
121.283,169.453
58.717,169.453
102.300,215.780
77.700,215.780
102.300,144.220
77.700,144.220
94.651,218.147
85.349,218.147
94.651,141.853
85.349,141.853
110.252,213.376
69.748,213.376
110.252,146.624
69.748,146.624
128.334,185.937
51.666,185.937
128.334,174.063
51.666,174.063
127.360,197.355
52.640,197.355
127.360,162.645
52.640,162.645
117.932,210.921
62.068,210.921
117.932,149.079
62.068,149.079
90.000,224.661
90.000,135.339
126.977,207.732
53.023,207.732
126.977,152.268
53.023,152.268
107.218,222.671
72.782,222.671
107.218,137.329
72.782,137.329
135.339,180.000
44.661,180.000
134.613,204.570
45.387,204.570
134.613,155.430
45.387,155.430
124.351,218.449
55.649,218.449
124.351,141.551
55.649,141.551
94.654,231.516
85.346,231.516
94.654,128.484
85.346,128.484
141.614,187.503
38.386,187.503
141.614,172.497
38.386,172.497
103.715,231.345
76.285,231.345
103.715,128.655
76.285,128.655
111.823,229.614
68.177,229.614
111.823,130.386
68.177,130.386
142.434,200.451
37.566,200.451
142.434,159.549
37.566,159.549
120.889,228.890
59.111,228.890
120.889,131.110
59.111,131.110
99.000,238.283
81.000,238.283
99.000,121.717
81.000,121.717
141.578,213.849
38.422,213.849
141.578,146.151
38.422,146.151
130.284,227.703
49.716,227.703
130.284,132.297
49.716,132.297
149.875,195.154
30.125,195.154
149.875,164.846
30.125,164.846
117.000,238.283
63.000,238.283
117.000,121.717
63.000,121.717
139.283,225.897
40.717,225.897
139.283,134.103
40.717,134.103
156.212,180.000
23.788,180.000
94.722,246.361
85.278,246.361
94.722,113.639
85.278,113.639
103.808,246.567
76.192,246.567
103.808,113.433
76.192,113.433
112.027,245.555
67.973,245.555
112.027,114.445
67.973,114.445
147.555,225.648
32.445,225.648
147.555,134.352
32.445,134.352
135.000,238.283
45.000,238.283
135.000,121.717
45.000,121.717
157.564,200.179
22.436,200.179
157.564,159.821
22.436,159.821
121.072,246.163
58.928,246.163
121.072,113.837
58.928,113.837
156.383,221.238
23.617,221.238
156.383,138.762
23.617,138.762
130.347,247.146
49.653,247.146
130.347,112.854
49.653,112.854
90.000,254.550
90.000,105.450
107.533,253.922
72.467,253.922
107.533,106.078
72.467,106.078
153.000,238.283
27.000,238.283
153.000,121.717
27.000,121.717
139.346,248.659
40.654,248.659
139.346,111.341
40.654,111.341
165.104,211.102
14.896,211.102
165.104,148.898
14.896,148.898
124.838,254.957
55.162,254.957
124.838,105.043
55.162,105.043
147.159,253.234
32.841,253.234
147.159,106.766
32.841,106.766
172.071,180.000
7.929,180.000
94.717,262.327
85.283,262.327
102.716,262.176
77.284,262.176
102.716,97.824
77.284,97.824
94.717,97.673
85.283,97.673
110.991,261.893
69.009,261.893
118.976,261.375
61.024,261.375
118.976,98.625
61.024,98.625
110.991,98.107
69.009,98.107
155.921,258.359
24.079,258.359
171.000,238.283
9.000,238.283
171.000,121.717
9.000,121.717
155.921,101.641
24.079,101.641
127.999,264.094
52.001,264.094
141.279,262.547
38.721,262.547
141.279,97.453
38.721,97.453
127.999,95.906
52.001,95.906
97.929,270.000
82.071,270.000
113.788,270.000
66.212,270.000
134.661,270.000
45.339,270.000
164.550,270.000
15.450,270.000
164.550,90.000
15.450,90.000
134.661,90.000
45.339,90.000
113.788,90.000
66.212,90.000
97.929,90.000
82.071,90.000
127.999,275.906
52.001,275.906
141.279,277.453
38.721,277.453
141.279,82.547
38.721,82.547
127.999,84.094
52.001,84.094
155.921,281.641
24.079,281.641
171.000,301.717
9.000,301.717
171.000,58.283
9.000,58.283
155.921,78.359
24.079,78.359
110.991,278.107
69.009,278.107
118.976,278.625
61.024,278.625
118.976,81.375
61.024,81.375
110.991,81.893
69.009,81.893
94.717,277.673
85.283,277.673
102.716,277.824
77.284,277.824
102.716,82.176
77.284,82.176
94.717,82.327
85.283,82.327
172.071,0.000
7.929,0.000
147.159,286.766
32.841,286.766
147.159,73.234
32.841,73.234
124.838,285.043
55.162,285.043
124.838,74.957
55.162,74.957
165.104,328.898
14.896,328.898
165.104,31.102
14.896,31.102
139.346,291.341
40.654,291.341
139.346,68.659
40.654,68.659
153.000,301.717
27.000,301.717
153.000,58.283
27.000,58.283
107.533,286.078
72.467,286.078
107.533,73.922
72.467,73.922
90.000,285.450
90.000,74.550
130.347,292.854
49.653,292.854
130.347,67.146
49.653,67.146
156.383,318.762
23.617,318.762
156.383,41.238
23.617,41.238
121.072,293.837
58.928,293.837
121.072,66.163
58.928,66.163
157.564,339.821
22.436,339.821
157.564,20.179
22.436,20.179
135.000,301.717
45.000,301.717
135.000,58.283
45.000,58.283
147.555,314.352
32.445,314.352
147.555,45.648
32.445,45.648
112.027,294.445
67.973,294.445
112.027,65.555
67.973,65.555
103.808,293.433
76.192,293.433
103.808,66.567
76.192,66.567
94.722,293.639
85.278,293.639
94.722,66.361
85.278,66.361
156.212,0.000
23.788,0.000
139.283,314.103
40.717,314.103
139.283,45.897
40.717,45.897
117.000,301.717
63.000,301.717
117.000,58.283
63.000,58.283
149.875,344.846
30.125,344.846
149.875,15.154
30.125,15.154
130.284,312.297
49.716,312.297
130.284,47.703
49.716,47.703
141.578,326.151
38.422,326.151
141.578,33.849
38.422,33.849
99.000,301.717
81.000,301.717
99.000,58.283
81.000,58.283
120.889,311.110
59.111,311.110
120.889,48.890
59.111,48.890
142.434,339.549
37.566,339.549
142.434,20.451
37.566,20.451
111.823,310.386
68.177,310.386
111.823,49.614
68.177,49.614
103.715,308.655
76.285,308.655
103.715,51.345
76.285,51.345
141.614,352.497
38.386,352.497
141.614,7.503
38.386,7.503
94.654,308.484
85.346,308.484
94.654,51.516
85.346,51.516
124.351,321.551
55.649,321.551
124.351,38.449
55.649,38.449
134.613,335.430
45.387,335.430
134.613,24.570
45.387,24.570
135.339,0.000
44.661,0.000
107.218,317.329
72.782,317.329
107.218,42.671
72.782,42.671
126.977,332.268
53.023,332.268
126.977,27.732
53.023,27.732
90.000,315.339
90.000,44.661
117.932,329.079
62.068,329.079
117.932,30.921
62.068,30.921
127.360,342.645
52.640,342.645
127.360,17.355
52.640,17.355
128.334,354.063
51.666,354.063
128.334,5.937
51.666,5.937
110.252,326.624
69.748,326.624
110.252,33.376
69.748,33.376
94.651,321.853
85.349,321.853
94.651,38.147
85.349,38.147
102.300,324.220
77.700,324.220
102.300,35.780
77.700,35.780
121.283,349.453
58.717,349.453
121.283,10.547
58.717,10.547
112.558,336.039
67.442,336.039
112.558,23.961
67.442,23.961
97.539,330.747
82.461,330.747
97.539,29.253
82.461,29.253
112.717,345.004
67.283,345.004
112.717,14.996
67.283,14.996
113.554,354.848
66.446,354.848
113.554,5.152
66.446,5.152
90.000,336.212
90.000,23.788
105.312,341.799
74.688,341.799
105.312,18.201
74.688,18.201
97.565,338.815
82.435,338.815
97.565,21.185
82.435,21.185
105.450,0.000
74.550,0.000
97.631,347.169
82.369,347.169
97.631,12.831
82.369,12.831
97.647,355.240
82.353,355.240
97.647,4.760
82.353,4.760
90.000,352.071
90.000,7.929
90.000,183.965
90.000,176.035
93.827,182.369
86.173,182.369
93.827,177.631
86.173,177.631
93.825,186.352
86.175,186.352
93.825,173.648
86.175,173.648
97.673,180.000
82.327,180.000
93.819,190.370
86.181,190.370
93.819,169.630
86.181,169.630
97.658,188.796
82.342,188.796
97.658,171.204
82.342,171.204
90.000,191.894
90.000,168.106
101.558,182.413
78.442,182.413
101.558,177.587
78.442,177.587
101.454,187.194
78.546,187.194
101.454,172.806
78.546,172.806
93.817,194.352
86.183,194.352
93.817,165.648
86.183,165.648
101.440,191.284
78.560,191.284
101.440,168.716
78.560,168.716
105.398,184.849
74.602,184.849
105.398,175.151
74.602,175.151
97.618,197.008
82.382,197.008
97.618,162.992
82.382,162.992
93.787,198.510
86.213,198.510
93.787,161.490
86.213,161.490
101.484,195.479
78.516,195.479
101.484,164.521
78.516,164.521
90.000,199.823
90.000,160.177
109.520,182.512
70.480,182.512
109.520,177.488
70.480,177.488
105.317,193.946
74.683,193.946
105.317,166.054
74.683,166.054
109.411,187.481
70.589,187.481
109.411,172.519
70.589,172.519
108.998,192.285
71.002,192.285
108.998,167.715
71.002,167.715
101.443,199.713
78.557,199.713
101.443,160.287
78.557,160.287
93.784,202.492
86.216,202.492
93.784,157.508
86.216,157.508
113.639,180.000
66.361,180.000
109.022,196.634
70.978,196.634
109.022,163.366
70.978,163.366
113.212,190.090
66.788,190.090
113.212,169.910
66.788,169.910
97.571,205.219
82.429,205.219
97.571,154.781
82.429,154.781
101.327,203.906
78.673,203.906
101.327,156.094
78.673,156.094
93.774,206.509
86.226,206.509
93.774,153.491
86.226,153.491
105.228,202.453
74.772,202.453
105.228,157.547
74.772,157.547
90.000,207.753
90.000,152.247
117.659,182.673
62.341,182.673
117.659,177.327
62.341,177.327
108.957,201.018
71.043,201.018
108.957,158.982
71.043,158.982
117.444,187.755
62.556,187.755
117.444,172.245
62.556,172.245
112.700,199.481
67.300,199.481
112.700,160.519
67.300,160.519
117.017,192.857
62.983,192.857
117.017,167.143
62.983,167.143
101.304,207.994
78.696,207.994
101.304,152.006
78.696,152.006
93.770,210.491
86.230,210.491
93.770,149.509
86.230,149.509
108.816,205.361
71.184,205.361
108.816,154.639
71.184,154.639
116.389,197.857
63.611,197.857
116.389,162.143
63.611,162.143
121.608,185.286
58.392,185.286
121.608,174.714
58.392,174.714
99.935,212.493
80.065,212.493
99.935,147.507
80.065,147.507
103.723,211.267
76.277,211.267
103.723,148.733
76.277,148.733
116.287,202.482
63.713,202.482
116.287,157.518
63.713,157.518
120.744,195.761
59.256,195.761
120.744,164.239
59.256,164.239
96.113,213.712
83.887,213.712
96.113,146.288
83.887,146.288
107.686,209.990
72.314,209.990
107.686,150.010
72.314,150.010
92.329,214.927
87.671,214.927
92.329,145.073
87.671,145.073
125.062,182.848
54.938,182.848
125.062,177.152
54.938,177.152
111.471,208.706
68.529,208.706
111.471,151.294
68.529,151.294
124.830,188.341
55.170,188.341
124.830,171.659
55.170,171.659
115.286,207.364
64.714,207.364
115.286,152.636
64.714,152.636
124.368,193.827
55.632,193.827
124.368,166.173
55.632,166.173
98.477,216.975
81.523,216.975
98.477,143.025
81.523,143.025
106.279,214.602
73.721,214.602
106.279,145.398
73.721,145.398
90.000,218.147
90.000,141.853
123.693,199.206
56.307,199.206
123.693,160.794
56.307,160.794
119.059,205.963
60.941,205.963
119.059,154.037
60.941,154.037
128.484,180.000
51.516,180.000
114.097,212.185
65.903,212.185
114.097,147.815
65.903,147.815
127.985,191.684
52.015,191.684
127.985,168.316
52.015,168.316
123.535,204.181
56.465,204.181
123.535,155.819
56.465,155.819
92.329,221.409
87.671,221.409
92.329,138.591
87.671,138.591
104.784,219.186
75.216,219.186
104.784,140.814
75.216,140.814
100.803,220.243
79.197,220.243
100.803,139.757
79.197,139.757
96.958,221.388
83.042,221.388
96.958,138.612
83.042,138.612
108.792,218.065
71.208,218.065
108.792,141.935
71.208,141.935
131.875,183.132
48.125,183.132
131.875,176.868
48.125,176.868
131.517,189.315
48.483,189.315
131.517,170.685
48.483,170.685
112.751,216.874
67.249,216.874
112.751,143.126
67.249,143.126
127.282,202.557
52.718,202.557
127.282,157.443
52.718,157.443
122.465,209.407
57.535,209.407
122.465,150.593
57.535,150.593
130.996,195.313
49.004,195.313
130.996,164.687
49.004,164.687
116.632,215.769
63.368,215.769
116.632,144.231
63.368,144.231
94.622,224.661
85.378,224.661
94.622,135.339
85.378,135.339
131.043,200.764
48.957,200.764
131.043,159.236
48.957,159.236
121.196,214.557
58.804,214.557
121.196,145.443
58.804,145.443
103.232,223.682
76.768,223.682
103.232,136.318
76.768,136.318
135.151,186.560
44.849,186.560
135.151,173.440
44.849,173.440
111.198,221.615
68.802,221.615
111.198,138.385
68.802,138.385
130.806,206.242
49.194,206.242
130.806,153.758
49.194,153.758
125.783,213.179
54.217,213.179
125.783,146.821
54.217,146.821
134.747,198.802
45.253,198.802
134.747,161.198
45.253,161.198
119.765,219.522
60.235,219.522
119.765,140.478
60.235,140.478
92.331,228.083
87.669,228.083
92.331,131.917
87.669,131.917
96.961,228.105
83.039,228.105
96.961,131.895
83.039,131.895
138.537,183.519
41.463,183.519
138.537,176.481
41.463,176.481
138.136,190.459
41.864,190.459
138.136,169.541
41.864,169.541
105.508,227.045
74.492,227.045
105.508,132.955
74.492,132.955
101.498,227.976
78.502,227.976
101.498,132.024
78.502,132.024
109.554,226.093
70.446,226.093
109.554,133.907
70.446,133.907
130.304,211.614
49.696,211.614
130.304,148.386
49.696,148.386
113.564,225.115
66.436,225.115
113.564,134.885
66.436,134.885
138.572,196.455
41.428,196.455
138.572,163.545
41.428,163.545
118.094,224.583
61.906,224.583
118.094,135.417
61.906,135.417
90.000,231.516
90.000,128.484
134.190,210.284
45.810,210.284
134.190,149.716
45.810,149.716
128.926,217.252
51.074,217.252
128.926,142.748
51.074,142.748
141.853,180.000
38.147,180.000
99.184,231.432
80.816,231.432
99.184,128.568
80.816,128.568
138.541,202.670
41.459,202.670
138.541,157.330
41.459,157.330
122.728,223.771
57.272,223.771
122.728,136.229
57.272,136.229
107.771,230.499
72.229,230.499
107.771,129.501
72.229,129.501
142.201,193.917
37.799,193.917
142.201,166.083
37.799,166.083
116.357,229.266
63.643,229.266
116.357,130.734
63.643,130.734
138.188,208.894
41.812,208.894
138.188,151.106
41.812,151.106
127.407,222.893
52.593,222.893
127.407,137.107
52.593,137.107
92.331,234.905
87.669,234.905
92.331,125.095
87.669,125.095
145.006,184.064
34.994,184.064
145.006,175.936
34.994,175.936
96.839,234.884
83.161,234.884
96.839,125.116
83.161,125.116
101.378,234.842
78.622,234.842
101.378,125.158
78.622,125.158
105.885,234.777
74.115,234.777
105.885,125.223
74.115,125.223
137.537,214.948
42.463,214.948
137.537,145.052
42.463,145.052
109.964,234.001
70.036,234.001
109.964,125.999
70.036,125.999
132.037,221.945
47.963,221.945
132.037,138.055
47.963,138.055
145.803,190.922
34.197,190.922
145.803,169.078
34.197,169.078
142.196,207.214
37.804,207.214
142.196,152.786
37.804,152.786
125.588,228.331
54.412,228.331
125.588,131.669
54.412,131.669
114.474,233.859
65.526,233.859
114.474,126.141
65.526,126.141
146.182,198.059
33.818,198.059
146.182,161.941
33.818,161.941
94.500,238.283
85.500,238.283
94.500,121.717
85.500,121.717
136.494,220.627
43.506,220.627
136.494,139.373
43.506,139.373
119.026,233.674
60.974,233.674
119.026,126.326
60.974,126.326
103.500,238.283
76.500,238.283
103.500,121.717
76.500,121.717
149.299,187.400
30.701,187.400
149.299,172.600
30.701,172.600
146.136,205.197
33.864,205.197
146.136,154.803
33.864,154.803
123.533,233.447
56.467,233.447
123.533,126.553
56.467,126.553
140.586,220.019
39.414,220.019
140.586,139.981
39.414,139.981
112.500,238.283
67.500,238.283
112.500,121.717
67.500,121.717
134.787,226.871
45.213,226.871
134.787,133.129
45.213,133.129
145.606,212.535
34.394,212.535
145.606,147.465
34.394,147.465
128.261,233.149
51.739,233.149
128.261,126.851
51.739,126.851
152.247,180.000
27.753,180.000
92.367,242.315
87.633,242.315
92.367,117.685
87.633,117.685
96.878,242.340
83.122,242.340
96.878,117.660
83.122,117.660
149.982,203.068
30.018,203.068
149.982,156.932
30.018,156.932
101.433,242.389
78.567,242.389
101.433,117.611
78.567,117.611
121.500,238.283
58.500,238.283
121.500,121.717
58.500,121.717
144.709,219.314
35.291,219.314
144.709,140.686
35.291,140.686
153.243,188.406
26.757,188.406
153.243,171.594
26.757,171.594
105.944,242.468
74.056,242.468
105.944,117.532
74.056,117.532
132.764,232.792
47.236,232.792
132.764,127.208
47.236,127.208
110.051,241.872
69.949,241.872
110.051,118.128
69.949,118.128
114.557,241.991
65.443,241.991
114.557,118.009
65.443,118.009
153.741,197.324
26.259,197.324
153.741,162.676
26.259,162.676
143.419,225.784
36.581,225.784
143.419,134.216
36.581,134.216
137.308,232.340
42.692,232.340
137.308,127.660
42.692,127.660
119.094,242.145
60.906,242.145
119.094,117.855
60.906,117.855
148.797,218.502
31.203,218.502
148.797,141.498
31.203,141.498
90.000,246.361
90.000,113.639
130.500,238.283
49.500,238.283
130.500,121.717
49.500,121.717
153.689,206.303
26.311,206.303
153.689,153.697
26.311,153.697
99.265,246.463
80.735,246.463
99.265,113.537
80.735,113.537
123.599,242.335
56.401,242.335
123.599,117.665
56.401,117.665
107.918,246.073
72.082,246.073
107.918,113.927
72.082,113.927
141.804,231.766
38.196,231.766
141.804,128.234
38.196,128.234
157.208,189.808
22.792,189.808
157.208,170.192
22.792,170.192
153.093,215.479
26.907,215.479
153.093,144.521
26.907,144.521
116.550,245.847
63.450,245.847
116.550,114.153
63.450,114.153
128.257,242.582
51.743,242.582
128.257,117.418
51.743,117.418
145.940,232.255
34.060,232.255
145.940,127.745
34.060,127.745
139.500,238.283
40.500,238.283
139.500,121.717
40.500,121.717
160.177,180.000
19.823,180.000
151.986,223.762
28.014,223.762
151.986,136.238
28.014,136.238
132.759,242.881
47.241,242.881
132.759,117.119
47.241,117.119
92.367,250.462
87.633,250.462
92.367,109.538
87.633,109.538
97.054,250.435
82.946,250.435
97.054,109.565
82.946,109.565
157.321,210.967
22.679,210.967
157.321,149.033
22.679,149.033
105.702,250.211
74.298,250.211
105.702,109.789
74.298,109.789
101.606,250.590
78.394,250.590
101.606,109.410
78.394,109.410
109.829,249.798
70.171,249.798
109.829,110.202
70.171,110.202
113.918,249.340
66.082,249.340
113.918,110.660
66.082,110.660
125.711,246.626
54.289,246.626
125.711,113.374
54.289,113.374
161.120,191.776
18.880,191.776
161.120,168.224
18.880,168.224
150.427,231.437
29.573,231.437
150.427,128.563
29.573,128.563
137.290,243.258
42.710,243.258
137.290,116.742
42.710,116.742
118.439,249.788
61.561,249.788
118.439,110.212
61.561,110.212
161.410,204.572
18.590,204.572
161.410,155.428
18.590,155.428
123.032,250.466
56.968,250.466
123.032,109.534
56.968,109.534
148.500,238.283
31.500,238.283
148.500,121.717
31.500,121.717
141.787,243.738
38.213,243.738
141.787,116.262
38.213,116.262
154.936,230.296
25.064,230.296
154.936,129.704
25.064,129.704
134.849,247.843
45.151,247.843
134.849,112.157
45.151,112.157
94.675,254.550
85.325,254.550
94.675,105.450
85.325,105.450
103.442,254.241
76.558,254.241
103.442,105.759
76.558,105.759
111.624,253.588
68.376,253.588
111.624,106.412
68.376,106.412
160.810,217.279
19.190,217.279
160.810,142.721
19.190,142.721
127.656,251.197
52.344,251.197
127.656,108.803
52.344,108.803
165.160,195.064
14.840,195.064
165.160,164.936
14.840,164.936
120.279,254.056
59.721,254.056
120.279,105.944
59.721,105.944
145.807,245.456
34.193,245.456
145.807,114.544
34.193,114.544
159.398,228.652
20.602,228.652
159.398,131.348
20.602,131.348
132.246,251.988
47.754,251.988
132.246,108.012
47.754,108.012
168.106,180.000
11.894,180.000
157.500,238.283
22.500,238.283
157.500,121.717
22.500,121.717
92.364,258.432
87.636,258.432
92.364,101.568
87.636,101.568
136.716,253.098
43.284,253.098
136.716,106.902
43.284,106.902
105.162,258.096
74.838,258.096
105.162,101.904
74.838,101.904
97.050,258.458
82.950,258.458
97.050,101.542
82.950,101.542
109.306,257.866
70.694,257.866
109.306,102.134
70.694,102.134
101.057,258.341
78.943,258.341
101.057,101.659
78.943,101.659
150.289,246.425
29.711,246.425
150.289,113.575
29.711,113.575
143.274,250.738
36.726,250.738
143.274,109.262
36.726,109.262
113.413,257.641
66.587,257.641
113.413,102.359
66.587,102.359
117.404,257.244
62.596,257.244
117.404,102.756
62.596,102.756
163.985,225.963
16.015,225.963
163.985,134.037
16.015,134.037
129.389,255.965
50.611,255.965
129.389,104.035
50.611,104.035
168.957,200.348
11.043,200.348
168.957,159.652
11.043,159.652
121.947,258.268
58.053,258.268
121.947,101.732
58.053,101.732
154.802,247.780
25.198,247.780
154.802,112.220
25.198,112.220
140.519,255.461
39.481,255.461
140.519,104.539
39.481,104.539
168.358,221.325
11.642,221.325
168.358,138.675
11.642,138.675
126.505,259.432
53.495,259.432
126.505,100.568
53.495,100.568
90.000,262.327
90.000,97.673
98.717,262.252
81.283,262.252
98.717,97.748
81.283,97.748
106.854,262.038
73.146,262.038
106.854,97.962
73.146,97.962
114.984,261.642
65.016,261.642
114.984,98.358
65.016,98.358
159.249,249.721
20.751,249.721
159.249,110.279
20.751,110.279
166.500,238.283
13.500,238.283
166.500,121.717
13.500,121.717
137.637,259.639
42.363,259.639
137.637,100.361
42.363,100.361
131.017,260.761
48.983,260.761
131.017,99.239
48.983,99.239
151.563,255.434
28.437,255.434
151.563,104.566
28.437,104.566
144.308,258.223
35.692,258.223
144.308,101.777
35.692,101.777
172.590,211.146
7.410,211.146
172.590,148.854
7.410,148.854
123.495,262.663
56.505,262.663
123.495,97.337
56.505,97.337
163.874,252.936
16.126,252.936
163.874,107.064
16.126,107.064
134.477,263.516
45.523,263.516
134.477,96.484
45.523,96.484
147.998,261.486
32.002,261.486
147.998,98.514
32.002,98.514
176.035,180.000
3.965,180.000
92.364,266.170
87.636,266.170
96.338,266.151
83.662,266.151
96.338,93.849
83.662,93.849
92.364,93.830
87.636,93.830
100.346,266.118
79.654,266.118
104.319,266.061
75.681,266.061
104.319,93.939
75.681,93.939
100.346,93.882
79.654,93.882
108.468,266.007
71.532,266.007
112.440,265.906
67.560,265.906
112.440,94.094
67.560,94.094
108.468,93.993
71.532,93.993
116.447,265.784
63.553,265.784
120.418,265.627
59.582,265.627
120.418,94.373
59.582,94.373
116.447,94.216
63.553,94.216
152.222,264.916
27.778,264.916
160.325,262.954
19.675,262.954
160.325,97.046
19.675,97.046
152.222,95.084
27.778,95.084
168.196,258.367
11.804,258.367
175.500,238.283
4.500,238.283
175.500,121.717
4.500,121.717
168.196,101.633
11.804,101.633
138.030,266.513
41.970,266.513
144.838,265.950
35.162,265.950
144.838,94.050
35.162,94.050
138.030,93.487
41.970,93.487
124.894,267.160
55.106,267.160
131.367,266.896
48.633,266.896
131.367,93.104
48.633,93.104
124.894,92.840
55.106,92.840
93.965,270.000
86.035,270.000
101.894,270.000
78.106,270.000
109.823,270.000
70.177,270.000
117.753,270.000
62.247,270.000
128.147,270.000
51.853,270.000
141.516,270.000
38.484,270.000
156.361,270.000
23.639,270.000
172.327,270.000
7.673,270.000
172.327,90.000
7.673,90.000
156.361,90.000
23.639,90.000
141.516,90.000
38.484,90.000
128.147,90.000
51.853,90.000
117.753,90.000
62.247,90.000
109.823,90.000
70.177,90.000
101.894,90.000
78.106,90.000
93.965,90.000
86.035,90.000
124.894,272.840
55.106,272.840
131.367,273.104
48.633,273.104
131.367,86.896
48.633,86.896
124.894,87.160
55.106,87.160
138.030,273.487
41.970,273.487
144.838,274.050
35.162,274.050
144.838,85.950
35.162,85.950
138.030,86.513
41.970,86.513
168.196,281.633
11.804,281.633
175.500,301.717
4.500,301.717
175.500,58.283
4.500,58.283
168.196,78.367
11.804,78.367
152.222,275.084
27.778,275.084
160.325,277.046
19.675,277.046
160.325,82.954
19.675,82.954
152.222,84.916
27.778,84.916
116.447,274.216
63.553,274.216
120.418,274.373
59.582,274.373
120.418,85.627
59.582,85.627
116.447,85.784
63.553,85.784
108.468,273.993
71.532,273.993
112.440,274.094
67.560,274.094
112.440,85.906
67.560,85.906
108.468,86.007
71.532,86.007
100.346,273.882
79.654,273.882
104.319,273.939
75.681,273.939
104.319,86.061
75.681,86.061
100.346,86.118
79.654,86.118
92.364,273.830
87.636,273.830
96.338,273.849
83.662,273.849
96.338,86.151
83.662,86.151
92.364,86.170
87.636,86.170
176.035,0.000
3.965,0.000
147.998,278.514
32.002,278.514
147.998,81.486
32.002,81.486
134.477,276.484
45.523,276.484
134.477,83.516
45.523,83.516
163.874,287.064
16.126,287.064
163.874,72.936
16.126,72.936
123.495,277.337
56.505,277.337
123.495,82.663
56.505,82.663
172.590,328.854
7.410,328.854
172.590,31.146
7.410,31.146
144.308,281.777
35.692,281.777
144.308,78.223
35.692,78.223
151.563,284.566
28.437,284.566
151.563,75.434
28.437,75.434
131.017,279.239
48.983,279.239
131.017,80.761
48.983,80.761
137.637,280.361
42.363,280.361
137.637,79.639
42.363,79.639
166.500,301.717
13.500,301.717
166.500,58.283
13.500,58.283
159.249,290.279
20.751,290.279
159.249,69.721
20.751,69.721
114.984,278.358
65.016,278.358
114.984,81.642
65.016,81.642
106.854,277.962
73.146,277.962
106.854,82.038
73.146,82.038
98.717,277.748
81.283,277.748
98.717,82.252
81.283,82.252
90.000,277.673
90.000,82.327
126.505,280.568
53.495,280.568
126.505,79.432
53.495,79.432
168.358,318.675
11.642,318.675
168.358,41.325
11.642,41.325
140.519,284.539
39.481,284.539
140.519,75.461
39.481,75.461
154.802,292.220
25.198,292.220
154.802,67.780
25.198,67.780
121.947,281.732
58.053,281.732
121.947,78.268
58.053,78.268
168.957,339.652
11.043,339.652
168.957,20.348
11.043,20.348
129.389,284.035
50.611,284.035
129.389,75.965
50.611,75.965
163.985,314.037
16.015,314.037
163.985,45.963
16.015,45.963
117.404,282.756
62.596,282.756
117.404,77.244
62.596,77.244
113.413,282.359
66.587,282.359
113.413,77.641
66.587,77.641
143.274,289.262
36.726,289.262
143.274,70.738
36.726,70.738
150.289,293.575
29.711,293.575
150.289,66.425
29.711,66.425
101.057,281.659
78.943,281.659
101.057,78.341
78.943,78.341
109.306,282.134
70.694,282.134
109.306,77.866
70.694,77.866
97.050,281.542
82.950,281.542
97.050,78.458
82.950,78.458
105.162,281.904
74.838,281.904
105.162,78.096
74.838,78.096
136.716,286.902
43.284,286.902
136.716,73.098
43.284,73.098
92.364,281.568
87.636,281.568
92.364,78.432
87.636,78.432
157.500,301.717
22.500,301.717
157.500,58.283
22.500,58.283
168.106,0.000
11.894,0.000
132.246,288.012
47.754,288.012
132.246,71.988
47.754,71.988
159.398,311.348
20.602,311.348
159.398,48.652
20.602,48.652
145.807,294.544
34.193,294.544
145.807,65.456
34.193,65.456
120.279,285.944
59.721,285.944
120.279,74.056
59.721,74.056
165.160,344.936
14.840,344.936
165.160,15.064
14.840,15.064
127.656,288.803
52.344,288.803
127.656,71.197
52.344,71.197
160.810,322.721
19.190,322.721
160.810,37.279
19.190,37.279
111.624,286.412
68.376,286.412
111.624,73.588
68.376,73.588
103.442,285.759
76.558,285.759
103.442,74.241
76.558,74.241
94.675,285.450
85.325,285.450
94.675,74.550
85.325,74.550
134.849,292.157
45.151,292.157
134.849,67.843
45.151,67.843
154.936,309.704
25.064,309.704
154.936,50.296
25.064,50.296
141.787,296.262
38.213,296.262
141.787,63.738
38.213,63.738
148.500,301.717
31.500,301.717
148.500,58.283
31.500,58.283
123.032,289.534
56.968,289.534
123.032,70.466
56.968,70.466
161.410,335.428
18.590,335.428
161.410,24.572
18.590,24.572
118.439,290.212
61.561,290.212
118.439,69.788
61.561,69.788
137.290,296.742
42.710,296.742
137.290,63.258
42.710,63.258
150.427,308.563
29.573,308.563
150.427,51.437
29.573,51.437
161.120,348.224
18.880,348.224
161.120,11.776
18.880,11.776
125.711,293.374
54.289,293.374
125.711,66.626
54.289,66.626
113.918,290.660
66.082,290.660
113.918,69.340
66.082,69.340
109.829,290.202
70.171,290.202
109.829,69.798
70.171,69.798
101.606,289.410
78.394,289.410
101.606,70.590
78.394,70.590
105.702,289.789
74.298,289.789
105.702,70.211
74.298,70.211
157.321,329.033
22.679,329.033
157.321,30.967
22.679,30.967
97.054,289.565
82.946,289.565
97.054,70.435
82.946,70.435
92.367,289.538
87.633,289.538
92.367,70.462
87.633,70.462
132.759,297.119
47.241,297.119
132.759,62.881
47.241,62.881
151.986,316.238
28.014,316.238
151.986,43.762
28.014,43.762
160.177,0.000
19.823,0.000
139.500,301.717
40.500,301.717
139.500,58.283
40.500,58.283
145.940,307.745
34.060,307.745
145.940,52.255
34.060,52.255
128.257,297.418
51.743,297.418
128.257,62.582
51.743,62.582
116.550,294.153
63.450,294.153
116.550,65.847
63.450,65.847
153.093,324.521
26.907,324.521
153.093,35.479
26.907,35.479
157.208,350.192
22.792,350.192
157.208,9.808
22.792,9.808
141.804,308.234
38.196,308.234
141.804,51.766
38.196,51.766
107.918,293.927
72.082,293.927
107.918,66.073
72.082,66.073
123.599,297.665
56.401,297.665
123.599,62.335
56.401,62.335
99.265,293.537
80.735,293.537
99.265,66.463
80.735,66.463
153.689,333.697
26.311,333.697
153.689,26.303
26.311,26.303
130.500,301.717
49.500,301.717
130.500,58.283
49.500,58.283
90.000,293.639
90.000,66.361
148.797,321.498
31.203,321.498
148.797,38.502
31.203,38.502
119.094,297.855
60.906,297.855
119.094,62.145
60.906,62.145
137.308,307.660
42.692,307.660
137.308,52.340
42.692,52.340
143.419,314.216
36.581,314.216
143.419,45.784
36.581,45.784
153.741,342.676
26.259,342.676
153.741,17.324
26.259,17.324
114.557,298.009
65.443,298.009
114.557,61.991
65.443,61.991
110.051,298.128
69.949,298.128
110.051,61.872
69.949,61.872
132.764,307.208
47.236,307.208
132.764,52.792
47.236,52.792
105.944,297.532
74.056,297.532
105.944,62.468
74.056,62.468
153.243,351.594
26.757,351.594
153.243,8.406
26.757,8.406
144.709,320.686
35.291,320.686
144.709,39.314
35.291,39.314
121.500,301.717
58.500,301.717
121.500,58.283
58.500,58.283
101.433,297.611
78.567,297.611
101.433,62.389
78.567,62.389
149.982,336.932
30.018,336.932
149.982,23.068
30.018,23.068
96.878,297.660
83.122,297.660
96.878,62.340
83.122,62.340
92.367,297.685
87.633,297.685
92.367,62.315
87.633,62.315
152.247,0.000
27.753,0.000
128.261,306.851
51.739,306.851
128.261,53.149
51.739,53.149
145.606,327.465
34.394,327.465
145.606,32.535
34.394,32.535
134.787,313.129
45.213,313.129
134.787,46.871
45.213,46.871
112.500,301.717
67.500,301.717
112.500,58.283
67.500,58.283
140.586,319.981
39.414,319.981
140.586,40.019
39.414,40.019
123.533,306.553
56.467,306.553
123.533,53.447
56.467,53.447
146.136,334.803
33.864,334.803
146.136,25.197
33.864,25.197
149.299,352.600
30.701,352.600
149.299,7.400
30.701,7.400
103.500,301.717
76.500,301.717
103.500,58.283
76.500,58.283
119.026,306.326
60.974,306.326
119.026,53.674
60.974,53.674
136.494,319.373
43.506,319.373
136.494,40.627
43.506,40.627
94.500,301.717
85.500,301.717
94.500,58.283
85.500,58.283
146.182,341.941
33.818,341.941
146.182,18.059
33.818,18.059
114.474,306.141
65.526,306.141
114.474,53.859
65.526,53.859
125.588,311.669
54.412,311.669
125.588,48.331
54.412,48.331
142.196,332.786
37.804,332.786
142.196,27.214
37.804,27.214
145.803,349.078
34.197,349.078
145.803,10.922
34.197,10.922
132.037,318.055
47.963,318.055
132.037,41.945
47.963,41.945
109.964,305.999
70.036,305.999
109.964,54.001
70.036,54.001
137.537,325.052
42.463,325.052
137.537,34.948
42.463,34.948
105.885,305.223
74.115,305.223
105.885,54.777
74.115,54.777
101.378,305.158
78.622,305.158
101.378,54.842
78.622,54.842
96.839,305.116
83.161,305.116
96.839,54.884
83.161,54.884
145.006,355.936
34.994,355.936
145.006,4.064
34.994,4.064
92.331,305.095
87.669,305.095
92.331,54.905
87.669,54.905
127.407,317.107
52.593,317.107
127.407,42.893
52.593,42.893
138.188,331.106
41.812,331.106
138.188,28.894
41.812,28.894
116.357,310.734
63.643,310.734
116.357,49.266
63.643,49.266
142.201,346.083
37.799,346.083
142.201,13.917
37.799,13.917
107.771,309.501
72.229,309.501
107.771,50.499
72.229,50.499
122.728,316.229
57.272,316.229
122.728,43.771
57.272,43.771
138.541,337.330
41.459,337.330
138.541,22.670
41.459,22.670
99.184,308.568
80.816,308.568
99.184,51.432
80.816,51.432
141.853,0.000
38.147,0.000
128.926,322.748
51.074,322.748
128.926,37.252
51.074,37.252
134.190,329.716
45.810,329.716
134.190,30.284
45.810,30.284
90.000,308.484
90.000,51.516
118.094,315.417
61.906,315.417
118.094,44.583
61.906,44.583
138.572,343.545
41.428,343.545
138.572,16.455
41.428,16.455
113.564,314.885
66.436,314.885
113.564,45.115
66.436,45.115
130.304,328.386
49.696,328.386
130.304,31.614
49.696,31.614
109.554,313.907
70.446,313.907
109.554,46.093
70.446,46.093
101.498,312.024
78.502,312.024
101.498,47.976
78.502,47.976
105.508,312.955
74.492,312.955
105.508,47.045
74.492,47.045
138.136,349.541
41.864,349.541
138.136,10.459
41.864,10.459
138.537,356.481
41.463,356.481
138.537,3.519
41.463,3.519
96.961,311.895
83.039,311.895
96.961,48.105
83.039,48.105
92.331,311.917
87.669,311.917
92.331,48.083
87.669,48.083
119.765,320.478
60.235,320.478
119.765,39.522
60.235,39.522
134.747,341.198
45.253,341.198
134.747,18.802
45.253,18.802
125.783,326.821
54.217,326.821
125.783,33.179
54.217,33.179
130.806,333.758
49.194,333.758
130.806,26.242
49.194,26.242
111.198,318.385
68.802,318.385
111.198,41.615
68.802,41.615
135.151,353.440
44.849,353.440
135.151,6.560
44.849,6.560
103.232,316.318
76.768,316.318
103.232,43.682
76.768,43.682
121.196,325.443
58.804,325.443
121.196,34.557
58.804,34.557
131.043,339.236
48.957,339.236
131.043,20.764
48.957,20.764
94.622,315.339
85.378,315.339
94.622,44.661
85.378,44.661
116.632,324.231
63.368,324.231
116.632,35.769
63.368,35.769
130.996,344.687
49.004,344.687
130.996,15.313
49.004,15.313
122.465,330.593
57.535,330.593
122.465,29.407
57.535,29.407
127.282,337.443
52.718,337.443
127.282,22.557
52.718,22.557
112.751,323.126
67.249,323.126
112.751,36.874
67.249,36.874
131.517,350.685
48.483,350.685
131.517,9.315
48.483,9.315
131.875,356.868
48.125,356.868
131.875,3.132
48.125,3.132
108.792,321.935
71.208,321.935
108.792,38.065
71.208,38.065
96.958,318.612
83.042,318.612
96.958,41.388
83.042,41.388
100.803,319.757
79.197,319.757
100.803,40.243
79.197,40.243
104.784,320.814
75.216,320.814
104.784,39.186
75.216,39.186
92.329,318.591
87.671,318.591
92.329,41.409
87.671,41.409
123.535,335.819
56.465,335.819
123.535,24.181
56.465,24.181
127.985,348.316
52.015,348.316
127.985,11.684
52.015,11.684
114.097,327.815
65.903,327.815
114.097,32.185
65.903,32.185
128.484,0.000
51.516,0.000
119.059,334.037
60.941,334.037
119.059,25.963
60.941,25.963
123.693,340.794
56.307,340.794
123.693,19.206
56.307,19.206
90.000,321.853
90.000,38.147
106.279,325.398
73.721,325.398
106.279,34.602
73.721,34.602
98.477,323.025
81.523,323.025
98.477,36.975
81.523,36.975
124.368,346.173
55.632,346.173
124.368,13.827
55.632,13.827
115.286,332.636
64.714,332.636
115.286,27.364
64.714,27.364
124.830,351.659
55.170,351.659
124.830,8.341
55.170,8.341
111.471,331.294
68.529,331.294
111.471,28.706
68.529,28.706
125.062,357.152
54.938,357.152
125.062,2.848
54.938,2.848
92.329,325.073
87.671,325.073
92.329,34.927
87.671,34.927
107.686,330.010
72.314,330.010
107.686,29.990
72.314,29.990
96.113,326.288
83.887,326.288
96.113,33.712
83.887,33.712
120.744,344.239
59.256,344.239
120.744,15.761
59.256,15.761
116.287,337.518
63.713,337.518
116.287,22.482
63.713,22.482
103.723,328.733
76.277,328.733
103.723,31.267
76.277,31.267
99.935,327.507
80.065,327.507
99.935,32.493
80.065,32.493
121.608,354.714
58.392,354.714
121.608,5.286
58.392,5.286
116.389,342.143
63.611,342.143
116.389,17.857
63.611,17.857
108.816,334.639
71.184,334.639
108.816,25.361
71.184,25.361
93.770,329.509
86.230,329.509
93.770,30.491
86.230,30.491
101.304,332.006
78.696,332.006
101.304,27.994
78.696,27.994
117.017,347.143
62.983,347.143
117.017,12.857
62.983,12.857
112.700,340.519
67.300,340.519
112.700,19.481
67.300,19.481
117.444,352.245
62.556,352.245
117.444,7.755
62.556,7.755
108.957,338.982
71.043,338.982
108.957,21.018
71.043,21.018
117.659,357.327
62.341,357.327
117.659,2.673
62.341,2.673
90.000,332.247
90.000,27.753
105.228,337.547
74.772,337.547
105.228,22.453
74.772,22.453
93.774,333.491
86.226,333.491
93.774,26.509
86.226,26.509
101.327,336.094
78.673,336.094
101.327,23.906
78.673,23.906
97.571,334.781
82.429,334.781
97.571,25.219
82.429,25.219
113.212,349.910
66.788,349.910
113.212,10.090
66.788,10.090
109.022,343.366
70.978,343.366
109.022,16.634
70.978,16.634
113.639,0.000
66.361,0.000
93.784,337.508
86.216,337.508
93.784,22.492
86.216,22.492
101.443,340.287
78.557,340.287
101.443,19.713
78.557,19.713
108.998,347.715
71.002,347.715
108.998,12.285
71.002,12.285
109.411,352.519
70.589,352.519
109.411,7.481
70.589,7.481
105.317,346.054
74.683,346.054
105.317,13.946
74.683,13.946
109.520,357.488
70.480,357.488
109.520,2.512
70.480,2.512
90.000,340.177
90.000,19.823
101.484,344.521
78.516,344.521
101.484,15.479
78.516,15.479
93.787,341.490
86.213,341.490
93.787,18.510
86.213,18.510
97.618,342.992
82.382,342.992
97.618,17.008
82.382,17.008
105.398,355.151
74.602,355.151
105.398,4.849
74.602,4.849
101.440,348.716
78.560,348.716
101.440,11.284
78.560,11.284
93.817,345.648
86.183,345.648
93.817,14.352
86.183,14.352
101.454,352.806
78.546,352.806
101.454,7.194
78.546,7.194
101.558,357.587
78.442,357.587
101.558,2.413
78.442,2.413
90.000,348.106
90.000,11.894
97.658,351.204
82.342,351.204
97.658,8.796
82.342,8.796
93.819,349.630
86.181,349.630
93.819,10.370
86.181,10.370
97.673,0.000
82.327,0.000
93.825,353.648
86.175,353.648
93.825,6.352
86.175,6.352
93.827,357.631
86.173,357.631
93.827,2.369
86.173,2.369
90.000,356.035
90.000,3.965
